number,2theta,d^-2,index,nr,a
1,40.6,0.202878,2,5.01817,3.13977
2,58.6,0.403676,4,3.04117,3.14784
3,73.5,0.603407,6,2.07394,3.15334
4,87.28,0.802772,8,1.4465,3.15681
5,100.88,1.00184,10,0.986885,3.15937
6,115.14,1.2008,12,0.626935,3.16123
7,131.38,1.39988,14,0.333783,3.16242
